Line,Lineset\South (CTK Side) Line 1 (E-W)-ch2
Frequency (MHz),Average Amplitude (mV)
0,4.95583e-005
0.305176,3.83213e-005
0.610352,4.76172e-005
0.915527,4.88261e-005
1.2207,3.50097e-005
1.52588,4.97099e-005
1.83105,4.14533e-005
2.13623,4.57347e-005
2.44141,4.88267e-005
2.74658,3.18862e-005
3.05176,5.07798e-005
3.35693,4.60373e-005
3.66211,4.06011e-005
3.96729,4.69386e-005
4.27246,3.12692e-005
4.57764,5.31635e-005
4.88281,4.88219e-005
5.18799,3.77345e-005
5.49316,4.62734e-005
5.79834,3.43192e-005
6.10352,5.03999e-005
6.40869,4.97937e-005
6.71387,3.27566e-005
7.01904,3.91409e-005
7.32422,3.16584e-005
7.62939,5.7579e-005
7.93457,5.50137e-005
8.23975,2.8175e-005
8.54492,4.68358e-005
8.8501,3.87743e-005
9.15527,5.30299e-005
9.46045,5.98277e-005
9.76563,3.67182e-005
10.0708,3.913e-005
10.376,4.50507e-005
10.6812,5.5042e-005
10.9863,6.82833e-005
11.2915,6.06754e-005
11.5967,4.26155e-005
11.9019,3.62565e-005
12.207,6.44444e-005
12.5122,8.37765e-005
12.8174,7.643e-005
13.1226,3.09176e-005
13.4277,3.72005e-005
13.7329,5.90026e-005
14.0381,7.14871e-005
14.3433,8.44653e-005
14.6484,6.77044e-005
14.9536,6.73735e-005
15.2588,0.000106521
15.564,0.000104709
15.8691,8.26969e-005
16.1743,6.34734e-005
16.4795,7.71002e-005
16.7847,0.000106571
17.0898,0.000100253
17.395,9.12041e-005
17.7002,7.8676e-005
18.0054,6.26087e-005
18.3105,0.000100062
18.6157,0.000141358
18.9209,0.000116286
19.2261,6.53709e-005
19.5313,8.68088e-005
19.8364,8.85205e-005
20.1416,9.48664e-005
20.4468,0.000105327
20.752,9.81862e-005
21.0571,9.45842e-005
21.3623,0.000139474
21.6675,0.000133119
21.9727,0.000125126
22.2778,0.00014011
22.583,0.000135786
22.8882,0.000119859
23.1934,0.000125623
23.4985,0.000124029
23.8037,0.00012278
24.1089,0.000116921
24.4141,9.67794e-005
24.7192,9.61281e-005
25.0244,9.63807e-005
25.3296,8.68729e-005
25.6348,0.000114965
25.9399,0.000121841
26.2451,0.000147159
26.5503,0.000188507
26.8555,0.000178259
27.1606,0.000177035
27.4658,0.000185549
27.771,0.000141988
28.0762,0.000142758
28.3813,0.000130949
28.6865,0.000196766
28.9917,0.000172817
29.2969,9.08951e-005
29.6021,0.000156986
29.9072,0.000235131
30.2124,0.000320188
30.5176,0.000335731
30.8228,0.000219986
31.1279,0.000201499
31.4331,0.000196062
31.7383,0.000162236
32.0435,0.000234288
32.3486,0.000231902
32.6538,0.000166342
32.959,0.00020489
33.2642,0.000193224
33.5693,0.000114001
33.8745,0.000118379
34.1797,0.000182199
34.4849,0.000219068
34.79,0.000237637
35.0952,0.000277551
35.4004,0.000283646
35.7056,0.000187772
36.0107,0.000188246
36.3159,0.000253787
36.6211,0.000317381
36.9263,0.000248589
37.2314,0.000149017
37.5366,0.000142437
37.8418,0.000196775
38.147,0.0002772
38.4521,0.00026133
38.7573,0.000247712
39.0625,0.000333081
39.3677,0.00035571
39.6729,0.000268391
39.978,0.000213961
40.2832,0.000217333
40.5884,0.000276223
40.8936,0.000282351
41.1987,0.000329784
41.5039,0.000459436
41.8091,0.000506987
42.1143,0.000442724
42.4194,0.000325116
42.7246,0.000299671
43.0298,0.000412721
43.335,0.000332584
43.6401,0.000262531
43.9453,0.000264285
44.2505,0.000262115
44.5557,0.000378596
44.8608,0.000449261
45.166,0.000454655
45.4712,0.000407066
45.7764,0.000393505
46.0815,0.000534711
46.3867,0.00076189
46.6919,0.000769543
46.9971,0.000497558
47.3022,0.000553377
47.6074,0.000653194
47.9126,0.000605648
48.2178,0.000527022
48.5229,0.00054162
48.8281,0.000546272
49.1333,0.000553497
49.4385,0.000675811
49.7437,0.000680732
50.0488,0.000725859
50.354,0.000739286
50.6592,0.000786648
50.9644,0.00070931
51.2695,0.000690129
51.5747,0.000837673
51.8799,0.000903829
52.1851,0.000824152
52.4902,0.000712046
52.7954,0.000708592
53.1006,0.000751781
53.4058,0.000734
53.7109,0.000889229
54.0161,0.00101395
54.3213,0.00103193
54.6265,0.00105975
54.9316,0.000975007
55.2368,0.00102328
55.542,0.00133114
55.8472,0.00155996
56.1523,0.00151667
56.4575,0.00125485
56.7627,0.000976928
57.0679,0.00102466
57.373,0.00125194
57.6782,0.00143223
57.9834,0.00126971
58.2886,0.000941483
58.5938,0.000886588
58.8989,0.00113586
59.2041,0.0014385
59.5093,0.0014648
59.8145,0.00122928
60.1196,0.00112488
60.4248,0.00145796
60.73,0.00199982
61.0352,0.00225047
61.3403,0.00215777
61.6455,0.00201284
61.9507,0.00192119
62.2559,0.00188463
62.561,0.00186134
62.8662,0.0018111
63.1714,0.0017947
63.4766,0.0017532
63.7817,0.00197354
64.0869,0.00218704
64.3921,0.00227389
64.6973,0.00222137
65.0024,0.00218841
65.3076,0.00220148
65.6128,0.00227262
65.918,0.00247891
66.2231,0.00269928
66.5283,0.00282557
66.8335,0.00274235
67.1387,0.00247375
67.4438,0.00231538
67.749,0.00230556
68.0542,0.00245218
68.3594,0.00277932
68.6646,0.00300809
68.9697,0.003038
69.2749,0.00294294
69.5801,0.0029531
69.8853,0.00319718
70.1904,0.00339129
70.4956,0.00334539
70.8008,0.00314896
71.106,0.00304021
71.4111,0.00325328
71.7163,0.00366689
72.0215,0.00391658
72.3267,0.00386435
72.6318,0.00370012
72.937,0.00373861
73.2422,0.00389109
73.5474,0.00402174
73.8525,0.00407045
74.1577,0.00396726
74.4629,0.00385065
74.7681,0.00392001
75.0732,0.00419139
75.3784,0.00458253
75.6836,0.00494295
75.9888,0.00508734
76.2939,0.00489007
76.5991,0.00450096
76.9043,0.00426798
77.2095,0.00439938
77.5146,0.0048191
77.8198,0.00522752
78.125,0.00546472
78.4302,0.00562995
78.7354,0.00583192
79.0405,0.00610857
79.3457,0.00626029
79.6509,0.00614341
79.9561,0.00594362
80.2612,0.00591688
80.5664,0.00622162
80.8716,0.00664858
81.1768,0.00682035
81.4819,0.00672972
81.7871,0.00665775
82.0923,0.00676836
82.3975,0.00692944
82.7026,0.00699956
83.0078,0.00694239
83.313,0.0068411
83.6182,0.00687158
83.9233,0.0070565
84.2285,0.00725311
84.5337,0.00739333
84.8389,0.00750959
85.144,0.00763075
85.4492,0.00762355
85.7544,0.0074227
86.0596,0.00721345
86.3647,0.00729895
86.6699,0.00776565
86.9751,0.00839047
87.2803,0.00886585
87.5854,0.00900396
87.8906,0.00893875
88.1958,0.00893177
88.501,0.00901847
88.8062,0.00913275
89.1113,0.00913221
89.4165,0.00906029
89.7217,0.00920063
90.0269,0.00946683
90.332,0.00964028
90.6372,0.00970892
90.9424,0.0097726
91.2476,0.0100039
91.5527,0.0103486
91.8579,0.0105281
92.1631,0.0104791
92.4683,0.0104477
92.7734,0.0107285
93.0786,0.0112453
93.3838,0.0115843
93.689,0.0115769
93.9941,0.0114059
94.2993,0.0113898
94.6045,0.011675
94.9097,0.0120109
95.2148,0.0120399
95.52,0.0117995
95.8252,0.0117403
96.1304,0.012076
96.4355,0.0125345
96.7407,0.0128594
97.0459,0.0130029
97.3511,0.0130921
97.6563,0.0132551
97.9614,0.0134468
98.2666,0.013592
98.5718,0.013797
98.877,0.0142457
99.1821,0.0148046
99.4873,0.0150528
99.7925,0.0147879
100.098,0.0142891
100.403,0.0141329
100.708,0.0145985
101.013,0.015316
101.318,0.0157455
101.624,0.0158031
101.929,0.015826
102.234,0.0160552
102.539,0.0163857
102.844,0.0165758
103.149,0.0165221
103.455,0.0164244
103.76,0.0165678
104.065,0.0168566
104.37,0.0169474
104.675,0.0168268
104.98,0.0169039
105.286,0.0174677
105.591,0.0181847
105.896,0.0184512
106.201,0.0181846
106.506,0.0178857
106.812,0.0179913
107.117,0.0184691
107.422,0.0189486
107.727,0.0191237
108.032,0.0191092
108.337,0.0192116
108.643,0.019524
108.948,0.0198107
109.253,0.0197853
109.558,0.0195418
109.863,0.0194773
110.168,0.0198308
110.474,0.0203881
110.779,0.0207169
111.084,0.0207019
111.389,0.0206292
111.694,0.0208627
112,0.0214159
112.305,0.0218807
112.61,0.021969
112.915,0.0217693
113.22,0.0215706
113.525,0.0216295
113.831,0.0220131
114.136,0.0226325
114.441,0.0232799
114.746,0.0236585
115.051,0.0235745
115.356,0.0231717
115.662,0.022964
115.967,0.0232995
116.272,0.0239562
116.577,0.0244857
116.882,0.0246413
117.188,0.0245985
117.493,0.0247426
117.798,0.0250964
118.103,0.0253235
118.408,0.025239
118.713,0.0250672
119.019,0.0251706
119.324,0.0255697
119.629,0.0259384
119.934,0.0259931
120.239,0.0258572
120.544,0.0259189
120.85,0.0262429
121.155,0.0265215
121.46,0.0265441
121.765,0.0265556
122.07,0.0270148
122.375,0.0277765
122.681,0.0281249
122.986,0.0277287
123.291,0.027103
123.596,0.0272317
123.901,0.0284006
124.207,0.0295723
124.512,0.0296466
124.817,0.028842
125.122,0.028504
125.427,0.0294486
125.732,0.0307979
126.038,0.0311448
126.343,0.0302374
126.648,0.0293106
126.953,0.0296835
127.258,0.0310489
127.563,0.0320404
127.869,0.0318573
128.174,0.0310013
128.479,0.0306176
128.784,0.031001
129.089,0.0315185
129.395,0.0317793
129.7,0.0320108
130.005,0.0325645
130.31,0.0333039
130.615,0.0336067
130.92,0.033141
131.226,0.0324007
131.531,0.0322081
131.836,0.0328335
132.141,0.0338316
132.446,0.0345664
132.751,0.0347884
133.057,0.0346809
133.362,0.0345253
133.667,0.0345229
133.972,0.0346864
134.277,0.034944
134.583,0.035202
134.888,0.0353056
135.193,0.0352276
135.498,0.0351364
135.803,0.0352211
136.108,0.0354259
136.414,0.0355025
136.719,0.0353936
137.024,0.0353349
137.329,0.0356226
137.634,0.036148
137.939,0.0364834
138.245,0.0365148
138.55,0.0365404
138.855,0.0368701
139.16,0.0373868
139.465,0.0376205
139.771,0.0373424
140.076,0.0368232
140.381,0.0365317
140.686,0.0367444
140.991,0.0373956
141.296,0.0381989
141.602,0.0387634
141.907,0.0387984
142.212,0.0384345
142.517,0.0382696
142.822,0.0388224
143.127,0.0398306
143.433,0.0403736
143.738,0.0398957
144.043,0.0389381
144.348,0.0385256
144.653,0.0388887
144.958,0.0393098
145.264,0.0391969
145.569,0.0388365
145.874,0.0389689
146.179,0.0397967
146.484,0.0407507
146.79,0.0412407
147.095,0.0413052
147.4,0.0413989
147.705,0.041644
148.01,0.0416756
148.315,0.0412778
148.621,0.0407376
148.926,0.0405494
149.231,0.0409401
149.536,0.0416991
149.841,0.042366
150.146,0.042556
150.452,0.0422207
150.757,0.0416151
151.062,0.0411957
151.367,0.0413882
151.672,0.0419799
151.978,0.042326
152.283,0.0422288
152.588,0.0418713
152.893,0.041565
153.198,0.0416383
153.503,0.0420927
153.809,0.0427306
154.114,0.0433611
154.419,0.0437162
154.724,0.0435129
155.029,0.0428962
155.334,0.0424932
155.64,0.0427786
155.945,0.0435718
156.25,0.0441158
156.555,0.0439926
156.86,0.0436702
157.166,0.0437546
157.471,0.0442062
157.776,0.0444987
158.081,0.0443183
158.386,0.0440449
158.691,0.0441563
158.997,0.0445101
159.302,0.0445681
159.607,0.0440765
159.912,0.0434562
160.217,0.0434197
160.522,0.044143
160.828,0.0450213
161.133,0.0453147
161.438,0.0448521
161.743,0.0441274
162.048,0.0437808
162.354,0.0439548
162.659,0.0443895
162.964,0.04486
163.269,0.0452838
163.574,0.0456092
163.879,0.0456506
164.185,0.0453138
164.49,0.0448413
164.795,0.0446482
165.1,0.0449888
165.405,0.0456423
165.71,0.0461716
166.016,0.0463021
166.321,0.0460069
166.626,0.0455571
166.931,0.0452202
167.236,0.0450908
167.542,0.0452226
167.847,0.0455535
168.152,0.0458724
168.457,0.0459445
168.762,0.0457463
169.067,0.0454296
169.373,0.0449796
169.678,0.0443265
169.983,0.0436615
170.288,0.043463
170.593,0.044117
170.898,0.0453345
171.204,0.0463028
171.509,0.0463274
171.814,0.0455544
172.119,0.0449204
172.424,0.0448571
172.729,0.0450836
173.035,0.0452072
173.34,0.0450675
173.645,0.0450013
173.95,0.0450471
174.255,0.044942
174.561,0.0446998
174.866,0.0444302
175.171,0.0444501
175.476,0.0445766
175.781,0.0442104
176.086,0.0435292
176.392,0.0431875
176.697,0.0436452
177.002,0.0446745
177.307,0.0454768
177.612,0.0456234
177.917,0.0452881
178.223,0.0449655
178.528,0.0449064
178.833,0.0448424
179.138,0.0446093
179.443,0.044366
179.749,0.0442773
180.054,0.0443713
180.359,0.0444698
180.664,0.0443859
180.969,0.0441384
181.274,0.043805
181.58,0.0434398
181.885,0.0431358
182.19,0.0429944
182.495,0.0430492
182.8,0.0432191
183.105,0.0433549
183.411,0.0434154
183.716,0.0435656
184.021,0.0439693
184.326,0.0444573
184.631,0.0445811
184.937,0.0440891
185.242,0.0432843
185.547,0.0428005
185.852,0.0428848
186.157,0.0430695
186.462,0.0427516
186.768,0.0419077
187.073,0.0411508
187.378,0.0410359
187.683,0.0414627
187.988,0.0419659
188.293,0.0421966
188.599,0.0421412
188.904,0.0420214
189.209,0.0418606
189.514,0.041565
189.819,0.041275
190.125,0.0411977
190.43,0.0414425
190.735,0.0418374
191.04,0.042009
191.345,0.0418276
191.65,0.0414457
191.956,0.0410532
192.261,0.0406694
192.566,0.0401888
192.871,0.0396721
193.176,0.0393881
193.481,0.0396535
193.787,0.0403791
194.092,0.0409775
194.397,0.0410009
194.702,0.0404719
195.007,0.0398058
195.313,0.0394068
195.618,0.0392785
195.923,0.0391585
196.228,0.038842
196.533,0.0385221
196.838,0.0385521
197.144,0.038863
197.449,0.0391483
197.754,0.0392227
198.059,0.0391641
198.364,0.0392078
198.669,0.0393397
198.975,0.0392984
199.28,0.0388511
199.585,0.0380494
199.89,0.0372759
200.195,0.0368444
200.5,0.0368008
200.806,0.0371203
201.111,0.0377067
201.416,0.038232
201.721,0.038183
202.026,0.0373369
202.332,0.0362013
202.637,0.0356617
202.942,0.0360945
203.247,0.0368019
203.552,0.0368676
203.857,0.0363147
204.163,0.0357935
204.468,0.0357906
204.773,0.036078
205.078,0.0359764
205.383,0.0354939
205.688,0.0351957
205.994,0.0352965
206.299,0.0354775
206.604,0.0353588
206.909,0.0350941
207.214,0.0350721
207.52,0.0352608
207.825,0.0352214
208.13,0.0347324
208.435,0.0341963
208.74,0.0341349
209.045,0.0345405
209.351,0.0349535
209.656,0.034973
209.961,0.0345777
210.266,0.0340928
210.571,0.0337791
210.876,0.0335976
211.182,0.0334542
211.487,0.0331878
211.792,0.0327567
212.097,0.0324161
212.402,0.0323282
212.708,0.032502
213.013,0.0327042
213.318,0.0326219
213.623,0.0321898
213.928,0.0314487
214.233,0.0306768
214.539,0.0303272
214.844,0.0307244
215.149,0.0317243
215.454,0.0324521
215.759,0.0321362
216.064,0.0309393
216.37,0.0299437
216.675,0.0301858
216.98,0.0311571
217.285,0.0312995
217.59,0.0299755
217.896,0.0282728
218.201,0.0278683
218.506,0.0290249
218.811,0.0302973
219.116,0.0304099
219.421,0.0295942
219.727,0.0289853
220.032,0.0290996
220.337,0.0293371
220.642,0.0290672
220.947,0.0286378
221.252,0.0288287
221.558,0.0295695
221.863,0.0299407
222.168,0.0294045
222.473,0.0282825
222.778,0.0272728
223.083,0.0268795
223.389,0.026992
223.694,0.0272011
223.999,0.0273227
224.304,0.0273848
224.609,0.0274096
224.915,0.02737
225.22,0.0273564
225.525,0.02741
225.83,0.0273946
226.135,0.0272128
226.44,0.0268129
226.746,0.0262966
227.051,0.0259323
227.356,0.0258071
227.661,0.025783
227.966,0.0256385
228.271,0.0251482
228.577,0.0243268
228.882,0.0235478
229.187,0.0232823
229.492,0.0237548
229.797,0.024711
230.103,0.0254589
230.408,0.0253858
230.713,0.0245175
231.018,0.0235022
231.323,0.0230784
231.628,0.0234392
231.934,0.0240112
232.239,0.0240503
232.544,0.0234352
232.849,0.0226046
233.154,0.0219551
233.459,0.021571
233.765,0.0213874
234.07,0.0213971
234.375,0.0216287
234.68,0.0219261
234.985,0.0219475
235.291,0.0215464
235.596,0.0210002
235.901,0.0207415
236.206,0.0208578
236.511,0.0210681
236.816,0.0210768
237.122,0.0209432
237.427,0.0210555
237.732,0.0214378
238.037,0.0216508
238.342,0.0213226
238.647,0.0204366
238.953,0.0194816
239.258,0.0190527
239.563,0.0193283
239.868,0.0198865
240.173,0.0201557
240.479,0.0200513
240.784,0.0195964
241.089,0.0190953
241.394,0.0190861
241.699,0.0193696
242.004,0.0194938
242.31,0.0192275
242.615,0.0187599
242.92,0.0185724
243.225,0.0186038
243.53,0.0185726
243.835,0.0182705
244.141,0.0177411
244.446,0.0174096
244.751,0.017206
245.056,0.0168098
245.361,0.0163286
245.667,0.0161112
245.972,0.0164972
246.277,0.0171269
246.582,0.0171838
246.887,0.0165017
247.192,0.0157664
247.498,0.0157849
247.803,0.0165275
248.108,0.0172312
248.413,0.0172336
248.718,0.0165041
249.023,0.015684
249.329,0.0153836
249.634,0.0155556
249.939,0.0158367
250.244,0.0159676
250.549,0.0159431
250.854,0.0158034
251.16,0.0154827
251.465,0.0150604
251.77,0.0147141
252.075,0.0147514
252.38,0.0153658
252.686,0.0160611
252.991,0.0161893
253.296,0.0156493
253.601,0.0148396
253.906,0.0142233
254.211,0.0139286
254.517,0.0136347
254.822,0.013218
255.127,0.0131403
255.432,0.0136188
255.737,0.0143043
256.042,0.0145645
256.348,0.0141738
256.653,0.0136925
256.958,0.0136422
257.263,0.0139114
257.568,0.0140132
257.874,0.0137208
258.179,0.0132655
258.484,0.0129524
258.789,0.0129343
259.094,0.0129858
259.399,0.0128376
259.705,0.0128003
260.01,0.0129813
260.315,0.013105
260.62,0.0128586
260.925,0.012339
261.23,0.0120074
261.536,0.011941
261.841,0.0118669
262.146,0.0114847
262.451,0.0109493
262.756,0.0109229
263.062,0.0115072
263.367,0.0120401
263.672,0.0119789
263.977,0.0114778
264.282,0.011369
264.587,0.0118344
264.893,0.0123093
265.198,0.0122847
265.503,0.011705
265.808,0.0110324
266.113,0.0107825
266.418,0.0109561
266.724,0.0112046
267.029,0.0112962
267.334,0.0112291
267.639,0.0109783
267.944,0.0106693
268.25,0.0105162
268.555,0.0106211
268.86,0.0108965
269.165,0.011031
269.47,0.0108931
269.775,0.0106692
270.081,0.0104703
270.386,0.0103236
270.691,0.0102647
270.996,0.0102398
271.301,0.0102198
271.606,0.0101679
271.912,0.0100746
272.217,0.00997706
272.522,0.00995756
272.827,0.0102628
273.132,0.0108059
273.438,0.0110573
273.743,0.0107366
274.048,0.0100138
274.353,0.00933011
274.658,0.00903206
274.963,0.0091756
275.269,0.00971217
275.574,0.0101319
275.879,0.00990198
276.184,0.00912853
276.489,0.00835337
276.794,0.00827866
277.1,0.00896136
277.405,0.00978727
277.71,0.0101705
278.015,0.00986417
278.32,0.00931164
278.625,0.00897257
278.931,0.00866707
279.236,0.00828756
279.541,0.00807524
279.846,0.00820927
280.151,0.00864926
280.457,0.00905791
280.762,0.00911672
281.067,0.00888287
281.372,0.00864338
281.677,0.00844908
281.982,0.00819983
282.288,0.00797754
282.593,0.00793604
282.898,0.0079144
283.203,0.00789743
283.508,0.00805888
283.813,0.00835205
284.119,0.00861673
284.424,0.00855804
284.729,0.00796705
285.034,0.0073549
285.339,0.00735897
285.645,0.00789584
285.95,0.00845018
286.255,0.00866668
286.56,0.00850474
286.865,0.00810413
287.17,0.00778488
287.476,0.00779761
287.781,0.0080675
288.086,0.00842882
288.391,0.00852009
288.696,0.0081143
289.001,0.00749397
289.307,0.00696454
289.612,0.00700641
289.917,0.00736663
290.222,0.00750928
290.527,0.00751929
290.833,0.00740798
291.138,0.00706685
291.443,0.0069833
291.748,0.00713038
292.053,0.00728712
292.358,0.00706157
292.664,0.00648368
292.969,0.00603436
293.274,0.00597506
293.579,0.00640133
293.884,0.00701648
294.189,0.00723422
294.495,0.0068952
294.8,0.00624414
295.105,0.00584661
295.41,0.00598178
295.715,0.00634651
296.021,0.00670059
296.326,0.00695753
296.631,0.00711658
296.936,0.00715774
297.241,0.00691526
297.546,0.0064718
297.852,0.00601881
298.157,0.00585896
298.462,0.00611669
298.767,0.00634075
299.072,0.00623659
299.377,0.00594685
299.683,0.00583392
299.988,0.00604844
300.293,0.00620123
300.598,0.00618107
300.903,0.00597153
301.208,0.00571831
301.514,0.00603634
301.819,0.00666556
302.124,0.00689929
302.429,0.00648614
302.734,0.00560138
303.04,0.00498657
303.345,0.00485699
303.65,0.00503146
303.955,0.00545519
304.26,0.00562944
304.565,0.00560659
304.871,0.00552084
305.176,0.00530056
305.481,0.00512153
305.786,0.00496493
306.091,0.00492428
306.396,0.00477922
306.702,0.0045967
307.007,0.00474131
307.312,0.00497728
307.617,0.00513069
307.922,0.00514865
308.228,0.00491278
308.533,0.00468046
308.838,0.0045623
309.143,0.00474011
309.448,0.00490225
309.753,0.00458639
310.059,0.00419863
310.364,0.00417069
310.669,0.00463073
310.974,0.00525511
311.279,0.00521242
311.584,0.00440642
311.89,0.00372913
312.195,0.00386767
312.5,0.00457219
312.805,0.00496977
313.11,0.00469273
313.416,0.00413191
313.721,0.00381877
314.026,0.00401179
314.331,0.00433064
314.636,0.00451532
314.941,0.00467536
315.247,0.00448348
315.552,0.00406832
315.857,0.0038969
316.162,0.00399663
316.467,0.00430327
316.772,0.00475539
317.078,0.00451111
317.383,0.0037158
317.688,0.00309641
317.993,0.00297603
318.298,0.0036349
318.604,0.0040655
318.909,0.00392623
319.214,0.00349828
319.519,0.00318178
319.824,0.00336453
320.129,0.00348572
320.435,0.00333812
320.74,0.00331177
321.045,0.00301564
321.35,0.00282071
321.655,0.00287446
321.96,0.00264004
322.266,0.00253227
322.571,0.00257761
322.876,0.00298848
323.181,0.00335164
323.486,0.00342279
323.792,0.00313641
324.097,0.00288659
324.402,0.00265513
324.707,0.00213428
325.012,0.00176498
325.317,0.00213855
325.623,0.00254405
325.928,0.00262171
326.233,0.00241359
326.538,0.0020254
326.843,0.00221717
327.148,0.0031475
327.454,0.00340887
327.759,0.00284073
328.064,0.00196095
328.369,0.0015335
328.674,0.00212574
328.979,0.0027386
329.285,0.00270113
329.59,0.00234659
329.895,0.00219605
330.2,0.00269749
330.505,0.00338714
330.811,0.00347181
331.116,0.00286148
331.421,0.00248585
331.726,0.00260696
332.031,0.00245698
332.336,0.00221063
332.642,0.0024075
332.947,0.00254735
333.252,0.00197668
333.557,0.00195873
333.862,0.00186556
334.167,0.00180495
334.473,0.00192422
334.778,0.00217319
335.083,0.00213342
335.388,0.00193657
335.693,0.00169929
335.999,0.00187675
336.304,0.00176048
336.609,0.00142489
336.914,0.00183452
337.219,0.00274698
337.524,0.00328142
337.83,0.00304926
338.135,0.00267035
338.44,0.00200299
338.745,0.00202603
339.05,0.00202063
339.355,0.00195134
339.661,0.0017301
339.966,0.00188481
340.271,0.0022532
340.576,0.00256531
340.881,0.00248778
341.187,0.00238822
341.492,0.00229321
341.797,0.00235199
342.102,0.00157439
342.407,0.000679963
342.712,0.00161275
343.018,0.00226555
343.323,0.0020607
343.628,0.00134263
343.933,0.00105685
344.238,0.00143788
344.543,0.00211599
344.849,0.00232636
345.154,0.00199233
345.459,0.00136534
345.764,0.00133113
346.069,0.00130398
346.375,0.00158693
346.68,0.00183951
346.985,0.00185588
347.29,0.00186507
347.595,0.00171133
347.9,0.00173551
348.206,0.00194097
348.511,0.00184611
348.816,0.00160954
349.121,0.0018531
349.426,0.00179871
349.731,0.00175392
350.037,0.00165354
350.342,0.00126928
350.647,0.000956001
350.952,0.00123349
351.257,0.00142892
351.563,0.00168895
351.868,0.00196501
352.173,0.00177528
352.478,0.00192277
352.783,0.00173148
353.088,0.00170652
353.394,0.00183525
353.699,0.00150216
354.004,0.0015371
354.309,0.00172992
354.614,0.00192851
354.919,0.0019573
355.225,0.00214906
355.53,0.00220985
355.835,0.00217
356.14,0.00226857
356.445,0.00224223
356.75,0.00167816
357.056,0.00212109
357.361,0.00204225
357.666,0.00199645
357.971,0.00211898
358.276,0.0018121
358.582,0.00100845
358.887,0.00168582
359.192,0.00234716
359.497,0.00259132
359.802,0.00216811
360.107,0.00154361
360.413,0.00151691
360.718,0.00162594
361.023,0.00179164
361.328,0.00151802
361.633,0.0014923
361.938,0.00113362
362.244,0.00121695
362.549,0.00180218
362.854,0.00236692
363.159,0.00258077
363.464,0.00270141
363.77,0.00270854
364.075,0.00284339
364.38,0.00302539
364.685,0.00285779
364.99,0.00239741
365.295,0.00196982
365.601,0.00192233
365.906,0.00224565
366.211,0.00222643
366.516,0.00181818
366.821,0.00180204
367.126,0.00199557
367.432,0.00239174
367.737,0.00259923
368.042,0.00249434
368.347,0.00244032
368.652,0.00233853
368.958,0.00243423
369.263,0.00223017
369.568,0.00261535
369.873,0.00306543
370.178,0.00308816
370.483,0.00284383
370.789,0.00255665
371.094,0.00197189
371.399,0.00189713
371.704,0.00253923
372.009,0.00243203
372.314,0.00207214
372.62,0.00196142
372.925,0.0018021
373.23,0.00181087
373.535,0.00186065
373.84,0.00169836
374.146,0.00229046
374.451,0.00300206
374.756,0.00304147
375.061,0.00249288
375.366,0.00241129
375.671,0.00296946
375.977,0.00380892
376.282,0.0040716
376.587,0.00329879
376.892,0.00213393
377.197,0.00176362
377.502,0.00200264
377.808,0.002286
378.113,0.00222319
378.418,0.00165319
378.723,0.00176234
379.028,0.00210593
379.333,0.00216634
379.639,0.00226484
379.944,0.00186394
380.249,0.00212571
380.554,0.00256958
380.859,0.0029603
381.165,0.00291959
381.47,0.00308909
381.775,0.00330507
382.08,0.00304377
382.385,0.00317079
382.69,0.00319019
382.996,0.00259512
383.301,0.00168268
383.606,0.00164604
383.911,0.00222966
384.216,0.00291423
384.521,0.00338231
384.827,0.00348207
385.132,0.00324884
385.437,0.00289067
385.742,0.00253588
386.047,0.00222667
386.353,0.00180328
386.658,0.00279142
386.963,0.0033338
387.268,0.00289436
387.573,0.0024921
387.878,0.00207892
388.184,0.00183059
388.489,0.00214087
388.794,0.00280831
389.099,0.00306587
389.404,0.0024263
389.709,0.00212698
390.015,0.00235492
390.32,0.00217033
390.625,0.00290437
390.93,0.00346561
391.235,0.00311954
391.541,0.00250553
391.846,0.00149411
392.151,0.00132836
392.456,0.00214384
392.761,0.00285216
393.066,0.00309252
393.372,0.00300939
393.677,0.00286457
393.982,0.00237748
394.287,0.00251495
394.592,0.00274635
394.897,0.00215758
395.203,0.00167001
395.508,0.0022891
395.813,0.00260308
396.118,0.0025391
396.423,0.00231047
396.729,0.0023155
397.034,0.00241268
397.339,0.00237917
397.644,0.00235294
397.949,0.00245784
398.254,0.00278431
398.56,0.00282196
398.865,0.00257531
399.17,0.00226867
399.475,0.00223537
399.78,0.00270023
400.085,0.00343201
400.391,0.00322292
400.696,0.00215107
401.001,0.00170504
401.306,0.00220485
401.611,0.00246018
401.917,0.00266267
402.222,0.00276475
402.527,0.00245025
402.832,0.00261974
403.137,0.00279485
403.442,0.00251269
403.748,0.00218042
404.053,0.00216963
404.358,0.00230231
404.663,0.00285696
404.968,0.00309403
405.273,0.00257186
405.579,0.00218672
405.884,0.00250401
406.189,0.00299205
406.494,0.00310803
406.799,0.00271096
407.104,0.00236315
407.41,0.00258255
407.715,0.00249968
408.02,0.00221432
408.325,0.00200332
408.63,0.00204924
408.936,0.00237798
409.241,0.00236656
409.546,0.00198774
409.851,0.00210171
410.156,0.00253897
410.461,0.00305943
410.767,0.00335984
411.072,0.00322933
411.377,0.00332754
411.682,0.00288277
411.987,0.00238497
412.292,0.00251165
412.598,0.00225669
412.903,0.00183807
413.208,0.00197814
413.513,0.00246636
413.818,0.00267179
414.124,0.00220709
414.429,0.00172461
414.734,0.00195414
415.039,0.00176847
415.344,0.00136498
415.649,0.00127428
415.955,0.00161412
416.26,0.00219779
416.565,0.00264762
416.87,0.00261128
417.175,0.00211486
417.48,0.00168816
417.786,0.00154719
418.091,0.00224855
418.396,0.00287598
418.701,0.00275391
419.006,0.00231985
419.312,0.00201806
419.617,0.00237541
419.922,0.00347352
420.227,0.00357096
420.532,0.00260169
420.837,0.00236371
421.143,0.00196274
421.448,0.002241
421.753,0.00248942
422.058,0.00278881
422.363,0.00270123
422.668,0.00244536
422.974,0.00236362
423.279,0.00234872
423.584,0.00251789
423.889,0.0027832
424.194,0.00311971
424.5,0.00260159
424.805,0.00185021
425.11,0.00200001
425.415,0.00237223
425.72,0.00254387
426.025,0.00266829
426.331,0.00266629
426.636,0.00252334
426.941,0.00191321
427.246,0.00163607
427.551,0.00194198
427.856,0.00180225
428.162,0.00182003
428.467,0.00248082
428.772,0.00236064
429.077,0.00170981
429.382,0.00147026
429.688,0.00166512
429.993,0.00220453
430.298,0.00275213
430.603,0.00258512
430.908,0.00243087
431.213,0.00257065
431.519,0.00248105
431.824,0.00238846
432.129,0.00254364
432.434,0.00261714
432.739,0.00249607
433.044,0.00203146
433.35,0.00196163
433.655,0.00272154
433.96,0.0027403
434.265,0.00246098
434.57,0.00234321
434.875,0.00272933
435.181,0.00322312
435.486,0.00316768
435.791,0.00293475
436.096,0.0026599
436.401,0.00196473
436.707,0.00153519
437.012,0.00203939
437.317,0.0030188
437.622,0.0031494
437.927,0.00226456
438.232,0.00218478
438.538,0.00216862
438.843,0.00210546
439.148,0.00233907
439.453,0.00216531
439.758,0.00197033
440.063,0.00251916
440.369,0.00218475
440.674,0.00187425
440.979,0.00184869
441.284,0.00216599
441.589,0.00281568
441.895,0.00328232
442.2,0.00313932
442.505,0.00292701
442.81,0.0026467
443.115,0.00199705
443.42,0.00246996
443.726,0.0026892
444.031,0.00252485
444.336,0.00200685
444.641,0.00170828
444.946,0.00205186
445.251,0.00276597
445.557,0.00256853
445.862,0.00194031
446.167,0.00174074
446.472,0.00226727
446.777,0.00341976
447.083,0.00365263
447.388,0.00274023
447.693,0.00190638
447.998,0.00167954
448.303,0.00261765
448.608,0.00370669
448.914,0.00322463
449.219,0.00219555
449.524,0.00175578
449.829,0.00139363
450.134,0.00212456
450.439,0.00251737
450.745,0.00230894
451.05,0.00252272
451.355,0.00302159
451.66,0.00301587
451.965,0.00244204
452.271,0.00210923
452.576,0.00171134
452.881,0.00220501
453.186,0.00301887
453.491,0.00297131
453.796,0.001887
454.102,0.00159775
454.407,0.00117656
454.712,0.00150178
455.017,0.00215494
455.322,0.00173159
455.627,0.00167553
455.933,0.00133294
456.238,0.00139771
456.543,0.00161212
456.848,0.00148463
457.153,0.00167846
457.458,0.00206365
457.764,0.00229921
458.069,0.00174994
458.374,0.00158985
458.679,0.00175351
458.984,0.00177786
459.29,0.00187619
459.595,0.00171107
459.9,0.00175246
460.205,0.00201518
460.51,0.0012621
460.815,0.00106263
461.121,0.0019538
461.426,0.00154441
461.731,0.00134554
462.036,0.00248555
462.341,0.00241998
462.646,0.00191331
462.952,0.00177148
463.257,0.00188833
463.562,0.00212192
463.867,0.00213269
464.172,0.00170867
464.478,0.00134915
464.783,0.00192159
465.088,0.00237055
465.393,0.00222388
465.698,0.00226954
466.003,0.00210003
466.309,0.00170445
466.614,0.00185899
466.919,0.00155183
467.224,0.00141601
467.529,0.00194517
467.834,0.00202009
468.14,0.00131498
468.445,0.00178692
468.75,0.00211073
469.055,0.00172584
469.36,0.00211174
469.666,0.00181531
469.971,0.00123857
470.276,0.00188131
470.581,0.00253582
470.886,0.00241201
471.191,0.00229668
471.497,0.00137748
471.802,0.00183402
472.107,0.00233385
472.412,0.00223721
472.717,0.00234008
473.022,0.00205894
473.328,0.00186718
473.633,0.00199237
473.938,0.00171017
474.243,0.00128607
474.548,0.00148517
474.854,0.00156721
475.159,0.00136757
475.464,0.0015933
475.769,0.00169135
476.074,0.00140268
476.379,0.00145573
476.685,0.00177938
476.99,0.00179094
477.295,0.001754
477.6,0.00155591
477.905,0.00121833
478.21,0.00160799
478.516,0.00195998
478.821,0.0021234
479.126,0.00201942
479.431,0.0014702
479.736,0.00121145
480.042,0.00183373
480.347,0.00169316
480.652,0.00123963
480.957,0.00152782
481.262,0.00157634
481.567,0.00150274
481.873,0.00216308
482.178,0.00238519
482.483,0.00200079
482.788,0.00159389
483.093,0.00206554
483.398,0.00224423
483.704,0.00174398
484.009,0.00129671
484.314,0.0017059
484.619,0.00185274
484.924,0.00186723
485.229,0.00130551
485.535,0.00103192
485.84,0.00114972
486.145,0.00125545
486.45,0.00147497
486.755,0.00128926
487.061,0.00152903
487.366,0.00232929
487.671,0.00207179
487.976,0.001331
488.281,0.0013691
488.586,0.00158564
488.892,0.00165048
489.197,0.00189821
489.502,0.00156463
489.807,0.00111689
490.112,0.0013646
490.417,0.00152168
490.723,0.00152326
491.028,0.00166851
491.333,0.00142269
491.638,0.00108381
491.943,0.0015031
492.249,0.0013875
492.554,0.0014323
492.859,0.00152068
493.164,0.00195787
493.469,0.00222387
493.774,0.0016224
494.08,0.00114442
494.385,0.00143011
494.69,0.00167564
494.995,0.00155317
495.3,0.00200621
495.605,0.00249979
495.911,0.00220369
496.216,0.00153473
496.521,0.0013259
496.826,0.00105044
497.131,0.00143936
497.437,0.00189793
497.742,0.00158824
498.047,0.00189529
498.352,0.0018865
498.657,0.00150905
498.962,0.00139498
499.268,0.00125489
499.573,0.00161482
499.878,0.0013783
500.183,0.000939862
500.488,0.00142889
500.793,0.00168564
501.099,0.00155612
501.404,0.00138816
501.709,0.00127191
502.014,0.00144918
502.319,0.0016977
502.625,0.00156184
502.93,0.00115087
503.235,0.000907204
503.54,0.00103504
503.845,0.0014759
504.15,0.00166476
504.456,0.00180983
504.761,0.0016636
505.066,0.00113766
505.371,0.000796077
505.676,0.00117771
505.981,0.00126702
506.287,0.00124641
506.592,0.00173957
506.897,0.00184505
507.202,0.0016813
507.507,0.00188456
507.813,0.00191823
508.118,0.00155519
508.423,0.00172927
508.728,0.00173788
509.033,0.00155963
509.338,0.00171207
509.644,0.00152243
509.949,0.00125153
510.254,0.00162455
510.559,0.00165818
510.864,0.00136948
511.169,0.00140923
511.475,0.00146953
511.78,0.00173891
512.085,0.00208886
512.39,0.00191229
512.695,0.0015832
513,0.0017824
513.306,0.00184814
513.611,0.00175236
513.916,0.00188898
514.221,0.00170154
514.526,0.00185662
514.832,0.00158202
515.137,0.00184667
515.442,0.00225942
515.747,0.00236176
516.052,0.00182505
516.357,0.00186007
516.663,0.00174922
516.968,0.00148432
517.273,0.00166717
517.578,0.00163464
517.883,0.00183022
518.188,0.00161295
518.494,0.00127019
518.799,0.00140748
519.104,0.00143185
519.409,0.00103203
519.714,0.00114333
520.02,0.00157633
520.325,0.00166652
520.63,0.00150241
520.935,0.00139648
521.24,0.00161015
521.545,0.00128726
521.851,0.00106648
522.156,0.00106774
522.461,0.00121088
522.766,0.00103036
523.071,0.00110443
523.376,0.00133141
523.682,0.00144602
523.987,0.00166649
524.292,0.00107639
524.597,0.00124223
524.902,0.00145194
525.208,0.00146611
525.513,0.00211565
525.818,0.00190032
526.123,0.00141446
526.428,0.00104962
526.733,0.00127913
527.039,0.00183502
527.344,0.00114312
527.649,0.00123545
527.954,0.00229199
528.259,0.00204597
528.564,0.00159414
528.87,0.00147106
529.175,0.00187003
529.48,0.00195845
529.785,0.00158798
530.09,0.0016773
530.396,0.00218522
530.701,0.00209183
531.006,0.00156265
531.311,0.00130054
531.616,0.00141027
531.921,0.0019228
532.227,0.00197308
532.532,0.00161419
532.837,0.00150135
533.142,0.0014308
533.447,0.00136737
533.752,0.00118172
534.058,0.00128752
534.363,0.00166741
534.668,0.00180118
534.973,0.00190969
535.278,0.00214064
535.583,0.00187156
535.889,0.00158345
536.194,0.00152956
536.499,0.00147101
536.804,0.000983743
537.109,0.000942126
537.415,0.00176143
537.72,0.00190207
538.025,0.00169187
538.33,0.00167177
538.635,0.00145714
538.94,0.00132752
539.246,0.00166786
539.551,0.00162433
539.856,0.00172631
540.161,0.00180169
540.466,0.00157008
540.771,0.00152534
541.077,0.00159752
541.382,0.00145378
541.687,0.00150427
541.992,0.00182951
542.297,0.00160446
542.603,0.00141517
542.908,0.00156994
543.213,0.00147174
543.518,0.00116867
543.823,0.00150769
544.128,0.00173504
544.434,0.00150956
544.739,0.00144942
545.044,0.0017545
545.349,0.00201054
545.654,0.00158123
545.959,0.00100095
546.265,0.00125197
546.57,0.00160362
546.875,0.00144982
547.18,0.00132071
547.485,0.00151696
547.791,0.00133844
548.096,0.00129279
548.401,0.00143608
548.706,0.00119947
549.011,0.000908887
549.316,0.00126943
549.622,0.00134491
549.927,0.00152478
550.232,0.00179811
550.537,0.00163998
550.842,0.00170821
551.147,0.0016972
551.453,0.00157873
551.758,0.00157289
552.063,0.00169894
552.368,0.00188583
552.673,0.00147078
552.979,0.000980752
553.284,0.00114578
553.589,0.00112476
553.894,0.00173526
554.199,0.0018129
554.504,0.00104175
554.81,0.0011261
555.115,0.00169439
555.42,0.00164608
555.725,0.00164795
556.03,0.0012364
556.335,0.00086738
556.641,0.00130924
556.946,0.00167746
557.251,0.00161406
557.556,0.00127421
557.861,0.00126139
558.167,0.00136022
558.472,0.00155919
558.777,0.00133934
559.082,0.000747036
559.387,0.000900474
559.692,0.00138092
559.998,0.00205332
560.303,0.00201354
560.608,0.00117558
560.913,0.00170851
561.218,0.00203727
561.523,0.0019767
561.829,0.00179917
562.134,0.0020834
562.439,0.00166464
562.744,0.00147528
563.049,0.00141196
563.354,0.0012132
563.66,0.00139869
563.965,0.00184931
564.27,0.00175442
564.575,0.00119606
564.88,0.00151118
565.186,0.00150562
565.491,0.00106194
565.796,0.000944359
566.101,0.00108433
566.406,0.000834718
566.711,0.00154138
567.017,0.00224345
567.322,0.00211288
567.627,0.00170895
567.932,0.00128154
568.237,0.00112056
568.542,0.00159548
568.848,0.00181515
569.153,0.00184638
569.458,0.00173643
569.763,0.00145916
570.068,0.00155528
570.374,0.00178966
570.679,0.00233543
570.984,0.0023631
571.289,0.0017961
571.594,0.00186307
571.899,0.00217283
572.205,0.00175747
572.51,0.00105778
572.815,0.00143216
573.12,0.00195826
573.425,0.00223754
573.73,0.00211767
574.036,0.00200816
574.341,0.00109929
574.646,0.00192613
574.951,0.00177835
575.256,0.000922649
575.562,0.00174833
575.867,0.00194726
576.172,0.00222928
576.477,0.00171627
576.782,0.00160838
577.087,0.00180902
577.393,0.0013664
577.698,0.00146988
578.003,0.00208896
578.308,0.00188152
578.613,0.00131528
578.918,0.00131599
579.224,0.0014713
579.529,0.00215399
579.834,0.00204939
580.139,0.00131269
580.444,0.000854008
580.75,0.00119809
581.055,0.00159763
581.36,0.00212488
581.665,0.0020868
581.97,0.00157532
582.275,0.00119737
582.581,0.0011766
582.886,0.00138125
583.191,0.00212275
583.496,0.00206925
583.801,0.00140346
584.106,0.00191734
584.412,0.00248978
584.717,0.00166333
585.022,0.00185843
585.327,0.0022168
585.632,0.00201438
585.938,0.00228088
586.243,0.00258613
586.548,0.00210274
586.853,0.00122316
587.158,0.00147299
587.463,0.001678
587.769,0.00168668
588.074,0.00169627
588.379,0.00127358
588.684,0.000965349
588.989,0.0012078
589.294,0.00118513
589.6,0.0012568
589.905,0.00113809
590.21,0.00172531
590.515,0.00193145
590.82,0.00192119
591.125,0.00229183
591.431,0.00214256
591.736,0.00176831
592.041,0.00174541
592.346,0.00159169
592.651,0.00149956
592.957,0.00219551
593.262,0.00304289
593.567,0.00261881
593.872,0.0016498
594.177,0.00190271
594.482,0.00232043
594.788,0.00213892
595.093,0.00234422
595.398,0.00234949
595.703,0.00199035
596.008,0.00177709
596.313,0.0012771
596.619,0.00102397
596.924,0.00143831
597.229,0.00167864
597.534,0.00175479
597.839,0.00187712
598.145,0.00189244
598.45,0.00149579
598.755,0.00145481
599.06,0.0013325
599.365,0.00133779
599.67,0.00146861
599.976,0.00162696
600.281,0.00156031
600.586,0.0013441
600.891,0.00179922
601.196,0.00193196
601.501,0.00161212
601.807,0.00138797
602.112,0.00129417
602.417,0.00155904
602.722,0.00170674
603.027,0.00162734
603.333,0.00169788
603.638,0.00162667
603.943,0.00147865
604.248,0.00173691
604.553,0.0019598
604.858,0.0018987
605.164,0.00191338
605.469,0.00152103
605.774,0.000904385
606.079,0.000650948
606.384,0.000956558
606.689,0.00163676
606.995,0.00175288
607.3,0.00117061
607.605,0.000934165
607.91,0.00106089
608.215,0.00120274
608.521,0.00144318
608.826,0.00122123
609.131,0.0011444
609.436,0.00183098
609.741,0.00199367
610.046,0.00247628
610.352,0.00278094
610.657,0.00193606
610.962,0.00120143
611.267,0.00173667
611.572,0.00150809
611.877,0.000981729
612.183,0.00185905
612.488,0.00218596
612.793,0.00178778
613.098,0.00208449
613.403,0.00185048
613.708,0.00123912
614.014,0.00174856
614.319,0.00200647
614.624,0.00171867
614.929,0.00148405
615.234,0.00145203
615.54,0.00163179
615.845,0.00193955
616.15,0.00188314
616.455,0.00146405
616.76,0.00125367
617.065,0.00129216
617.371,0.0013665
617.676,0.00205675
617.981,0.00209036
618.286,0.00158747
618.591,0.00172375
618.896,0.00197088
619.202,0.00180028
619.507,0.00115705
619.812,0.00150651
620.117,0.00215147
620.422,0.00179561
620.728,0.00181503
621.033,0.00197989
621.338,0.00193012
621.643,0.00205142
621.948,0.00156775
622.253,0.00113128
622.559,0.00162846
622.864,0.00158213
623.169,0.00141577
623.474,0.0016902
623.779,0.00154274
624.084,0.0015084
624.39,0.00200136
624.695,0.00164236
625,0.0011414
625.305,0.000787429
625.61,0.00130665
625.916,0.00182669
626.221,0.00181262
626.526,0.00187527
626.831,0.0019369
627.136,0.00137833
627.441,0.00164827
627.747,0.00176621
628.052,0.00186157
628.357,0.00222427
628.662,0.00151798
628.967,0.00105556
629.272,0.00138999
629.578,0.00162061
629.883,0.00270008
630.188,0.00253563
630.493,0.00134525
630.798,0.00153591
631.104,0.00220803
631.409,0.00156991
631.714,0.00172171
632.019,0.00258599
632.324,0.00240398
632.629,0.00183027
632.935,0.00159995
633.24,0.00156802
633.545,0.00153266
633.85,0.00153306
634.155,0.00120027
634.46,0.00144009
634.766,0.00170398
635.071,0.00154302
635.376,0.00122263
635.681,0.00194677
635.986,0.00199204
636.292,0.00104162
636.597,0.00143118
636.902,0.00213245
637.207,0.00234091
637.512,0.0020557
637.817,0.00215299
638.123,0.00213287
638.428,0.00153602
638.733,0.0013681
639.038,0.00163801
639.343,0.00142499
639.648,0.00136427
639.954,0.00163234
640.259,0.00192163
640.564,0.00166482
640.869,0.00156358
641.174,0.00190845
641.479,0.00201026
641.785,0.00233682
642.09,0.0022623
642.395,0.00198926
642.7,0.00202106
643.005,0.00220388
643.311,0.002167
643.616,0.00146106
643.921,0.00194832
644.226,0.0027629
644.531,0.00247445
644.836,0.00185996
645.142,0.00198675
645.447,0.00188982
645.752,0.00145578
646.057,0.00164887
646.362,0.00151437
646.667,0.00116969
646.973,0.00110407
647.278,0.00173215
647.583,0.00158473
647.888,0.0015178
648.193,0.00165846
648.499,0.0014677
648.804,0.00124332
649.109,0.00159403
649.414,0.00218092
649.719,0.00253549
650.024,0.00216147
650.33,0.00159093
650.635,0.00117505
650.94,0.00161739
651.245,0.00212607
651.55,0.00211097
651.855,0.00183298
652.161,0.00226381
652.466,0.00183968
652.771,0.00114549
653.076,0.00138592
653.381,0.00131752
653.687,0.00126302
653.992,0.00174035
654.297,0.00210816
654.602,0.00193816
654.907,0.00178233
655.212,0.00191786
655.518,0.00191387
655.823,0.00152723
656.128,0.00131758
656.433,0.00138011
656.738,0.00137472
657.043,0.00213557
657.349,0.00209702
657.654,0.00134364
657.959,0.00103453
658.264,0.000947174
658.569,0.000814374
658.875,0.00116209
659.18,0.00166235
659.485,0.00202935
659.79,0.00156575
660.095,0.00147379
660.4,0.00207093
660.706,0.00218723
661.011,0.0014952
661.316,0.00117626
661.621,0.000857539
661.926,0.000763798
662.231,0.0010677
662.537,0.00162856
662.842,0.00102933
663.147,0.00172217
663.452,0.00290135
663.757,0.00271781
664.063,0.00198522
664.368,0.00176153
664.673,0.00165865
664.978,0.00130987
665.283,0.00138958
665.588,0.00200852
665.894,0.0023088
666.199,0.00194592
666.504,0.00202203
666.809,0.00170103
667.114,0.0015402
667.419,0.00177866
667.725,0.00182069
668.03,0.00135099
668.335,0.00089758
668.64,0.00106602
668.945,0.00168407
669.25,0.00190941
669.556,0.00195573
669.861,0.00189498
670.166,0.00163309
670.471,0.00126739
670.776,0.00123323
671.082,0.00176227
671.387,0.00161729
671.692,0.00173504
671.997,0.00192712
672.302,0.00147446
672.607,0.00177907
672.913,0.002062
673.218,0.00174373
673.523,0.00197025
673.828,0.00221977
674.133,0.00186242
674.438,0.00166225
674.744,0.00153834
675.049,0.00150735
675.354,0.0022678
675.659,0.00279692
675.964,0.00221978
676.27,0.000937153
676.575,0.0010312
676.88,0.00109109
677.185,0.0011174
677.49,0.00113425
677.795,0.00174654
678.101,0.00218178
678.406,0.00229132
678.711,0.00198205
679.016,0.00161698
679.321,0.0015739
679.626,0.00160109
679.932,0.00217543
680.237,0.00244335
680.542,0.0017636
680.847,0.00187908
681.152,0.00257639
681.458,0.00220415
681.763,0.0019
682.068,0.00177875
682.373,0.00156123
682.678,0.00157103
682.983,0.00134679
683.289,0.00165298
683.594,0.0016908
683.899,0.00183607
684.204,0.00195652
684.509,0.00132651
684.814,0.00115783
685.12,0.00142533
685.425,0.00137223
685.73,0.00143757
686.035,0.00151346
686.34,0.00125498
686.646,0.00125194
686.951,0.00129232
687.256,0.00179794
687.561,0.00221791
687.866,0.00165448
688.171,0.00112514
688.477,0.00111431
688.782,0.001207
689.087,0.00121703
689.392,0.00166021
689.697,0.00193217
690.002,0.00166443
690.308,0.00190083
690.613,0.00191013
690.918,0.00182397
691.223,0.00176865
691.528,0.00203516
691.833,0.00218311
692.139,0.00162
692.444,0.00155468
692.749,0.00179901
693.054,0.00152987
693.359,0.00214874
693.665,0.00220909
693.97,0.00154948
694.275,0.00222421
694.58,0.00224892
694.885,0.00217066
695.19,0.00209457
695.496,0.00103864
695.801,0.00110832
696.106,0.00185661
696.411,0.00191076
696.716,0.00163277
697.021,0.00100249
697.327,0.00173092
697.632,0.00169882
697.937,0.00152287
698.242,0.00203412
698.547,0.00204794
698.853,0.00177593
699.158,0.00134415
699.463,0.000724823
699.768,0.000892048
700.073,0.000989928
700.378,0.00147442
700.684,0.0016195
700.989,0.00138005
701.294,0.00172196
701.599,0.00120116
701.904,0.0014909
702.209,0.0018229
702.515,0.00147362
702.82,0.00168552
703.125,0.00184342
703.43,0.00153067
703.735,0.00191566
704.041,0.0019678
704.346,0.0019062
704.651,0.00198834
704.956,0.00205718
705.261,0.00162785
705.566,0.00109263
705.872,0.00149295
706.177,0.00194365
706.482,0.00163108
706.787,0.00161699
707.092,0.00182701
707.397,0.00212032
707.703,0.00203868
708.008,0.00123513
708.313,0.00074595
708.618,0.00111497
708.923,0.00139011
709.229,0.00117853
709.534,0.000964546
709.839,0.00159836
710.144,0.00197544
710.449,0.00216516
710.754,0.00224447
711.06,0.00188386
711.365,0.0015131
711.67,0.00107466
711.975,0.00117953
712.28,0.00211045
712.585,0.00203779
712.891,0.000934288
713.196,0.00119312
713.501,0.00185974
713.806,0.00166625
714.111,0.00127233
714.417,0.00182661
714.722,0.00168711
715.027,0.00128975
715.332,0.00085306
715.637,0.000915109
715.942,0.00106988
716.248,0.00105264
716.553,0.00097786
716.858,0.00146876
717.163,0.00201346
717.468,0.00210503
717.773,0.0017179
718.079,0.00157733
718.384,0.00137024
718.689,0.000977759
718.994,0.00130601
719.299,0.00156071
719.604,0.00170075
719.91,0.00196495
720.215,0.00194834
720.52,0.0014083
720.825,0.00097093
721.13,0.000731307
721.436,0.00126281
721.741,0.00182941
722.046,0.0018971
722.351,0.00153841
722.656,0.00139778
722.961,0.00215501
723.267,0.00204043
723.572,0.00131737
723.877,0.00178443
724.182,0.00214365
724.487,0.00191751
724.792,0.00205233
725.098,0.00192625
725.403,0.00203876
725.708,0.00222938
726.013,0.00162547
726.318,0.00124266
726.624,0.00130229
726.929,0.00153727
727.234,0.0016209
727.539,0.00170908
727.844,0.00149127
728.149,0.000825258
728.455,0.00091588
728.76,0.00174591
729.065,0.0019745
729.37,0.00195944
729.675,0.00152778
729.98,0.00153774
730.286,0.00179705
730.591,0.00187262
730.896,0.00146768
731.201,0.00137827
731.506,0.00171091
731.812,0.0016418
732.117,0.00204658
732.422,0.00231116
732.727,0.00196834
733.032,0.00182906
733.337,0.00203632
733.643,0.00193998
733.948,0.00178711
734.253,0.00143197
734.558,0.00165885
734.863,0.00154334
735.168,0.00159068
735.474,0.00157761
735.779,0.00131715
736.084,0.00110509
736.389,0.00139552
736.694,0.00167645
737,0.00140321
737.305,0.00115188
737.61,0.00124563
737.915,0.0012317
738.22,0.00131724
738.525,0.00142628
738.831,0.00164374
739.136,0.00151987
739.441,0.00154559
739.746,0.00147982
740.051,0.00159977
740.356,0.00164918
740.662,0.00165724
740.967,0.00133468
741.272,0.000677047
741.577,0.00133484
741.882,0.00160387
742.188,0.00127942
742.493,0.00101929
742.798,0.00091034
743.103,0.0012059
743.408,0.00130374
743.713,0.00143098
744.019,0.00142611
744.324,0.0011833
744.629,0.00109245
744.934,0.00126874
745.239,0.00181057
745.544,0.00185361
745.85,0.00126373
746.155,0.00120816
746.46,0.00102688
746.765,0.00124069
747.07,0.00159619
747.375,0.00104154
747.681,0.0014513
747.986,0.00155875
748.291,0.000883075
748.596,0.00158655
748.901,0.00183886
749.207,0.00158757
749.512,0.00173753
749.817,0.00155981
750.122,0.00130479
750.427,0.00163403
750.732,0.00221445
751.038,0.00207695
751.343,0.00128864
751.648,0.00141754
751.953,0.00176036
752.258,0.00144194
752.563,0.00140997
752.869,0.00115653
753.174,0.00166115
753.479,0.00197816
753.784,0.00185163
754.089,0.00146753
754.395,0.00130282
754.7,0.00154121
755.005,0.00165447
755.31,0.00137111
755.615,0.00124581
755.92,0.00108994
756.226,0.00122335
756.531,0.00149674
756.836,0.00171772
757.141,0.00194758
757.446,0.00168377
757.751,0.00152906
758.057,0.00171598
758.362,0.00165898
758.667,0.00124564
758.972,0.00121582
759.277,0.00175125
759.583,0.00181973
759.888,0.0017623
760.193,0.0019716
760.498,0.00183419
760.803,0.00164621
761.108,0.00225994
761.414,0.00236324
761.719,0.00188998
762.024,0.0016437
762.329,0.00140758
762.634,0.00161158
762.939,0.00171257
763.245,0.00145584
763.55,0.00133525
763.855,0.00173832
764.16,0.001594
764.465,0.00108373
764.771,0.00141729
765.076,0.00113183
765.381,0.00114412
765.686,0.00125405
765.991,0.00165835
766.296,0.00179691
766.602,0.00146483
766.907,0.0023269
767.212,0.0021819
767.517,0.000960621
767.822,0.00171484
768.127,0.00126438
768.433,0.000890883
768.738,0.0011783
769.043,0.000931337
769.348,0.0012505
769.653,0.00106785
769.958,0.00110487
770.264,0.00109626
770.569,0.00110363
770.874,0.00144227
771.179,0.00161553
771.484,0.00112468
771.79,0.00118947
772.095,0.00184639
772.4,0.0017312
772.705,0.0012899
773.01,0.00112264
773.315,0.00129186
773.621,0.00120867
773.926,0.00124747
774.231,0.00134647
774.536,0.00156229
774.841,0.00157584
775.146,0.00113195
775.452,0.000713353
775.757,0.000752927
776.062,0.000940681
776.367,0.000769916
776.672,0.00120846
776.978,0.00169432
777.283,0.00205531
777.588,0.00205459
777.893,0.00186702
778.198,0.00190408
778.503,0.00100217
778.809,0.0010527
779.114,0.00179181
779.419,0.00175998
779.724,0.00138624
780.029,0.00191596
780.334,0.00157808
780.64,0.000879394
780.945,0.000988788
781.25,0.00140804
781.555,0.00162344
781.86,0.0014695
782.166,0.00138425
782.471,0.000998983
782.776,0.00116622
783.081,0.00175499
783.386,0.00201362
783.691,0.00162254
783.997,0.00113323
784.302,0.00153744
784.607,0.00192958
784.912,0.00200027
785.217,0.00187318
785.522,0.00180404
785.828,0.00157142
786.133,0.00101894
786.438,0.00107164
786.743,0.00135261
787.048,0.00130855
787.354,0.00144787
787.659,0.00119098
787.964,0.00115565
788.269,0.00133194
788.574,0.00124426
788.879,0.000960911
789.185,0.0014885
789.49,0.00179601
789.795,0.00161377
790.1,0.00131758
790.405,0.0016612
790.71,0.00151081
791.016,0.00147608
791.321,0.00154242
791.626,0.00173923
791.931,0.00199141
792.236,0.00172018
792.542,0.00156607
792.847,0.00155263
793.152,0.000966508
793.457,0.00114012
793.762,0.00133942
794.067,0.00140084
794.373,0.00164448
794.678,0.00125568
794.983,0.00128011
795.288,0.00164714
795.593,0.00128033
795.898,0.0015052
796.204,0.00170875
796.509,0.00142257
796.814,0.00160804
797.119,0.00185542
797.424,0.00199064
797.729,0.00155385
798.035,0.00126469
798.34,0.00114785
798.645,0.00146026
798.95,0.00190043
799.255,0.00170026
799.561,0.00207719
799.866,0.00228405
800.171,0.00184578
800.476,0.00118079
800.781,0.000937441
801.086,0.00109426
801.392,0.00148672
801.697,0.00175116
802.002,0.00158654
802.307,0.00139465
802.612,0.00170911
802.917,0.00197717
803.223,0.00173072
803.528,0.00157202
803.833,0.00152327
804.138,0.00122195
804.443,0.00139941
804.749,0.00184995
805.054,0.00218944
805.359,0.00202605
805.664,0.00197876
805.969,0.00171393
806.274,0.00148517
806.58,0.00147113
806.885,0.00112627
807.19,0.00129812
807.495,0.00163478
807.8,0.00174676
808.105,0.00152348
808.411,0.00148174
808.716,0.00166215
809.021,0.00132007
809.326,0.000956361
809.631,0.0012704
809.937,0.0014197
810.242,0.0010757
810.547,0.000914331
810.852,0.000970777
811.157,0.00132461
811.462,0.001717
811.768,0.00136838
812.073,0.00146111
812.378,0.00176208
812.683,0.00197743
812.988,0.0024617
813.293,0.00225462
813.599,0.00113508
813.904,0.00126709
814.209,0.00207657
814.514,0.00187036
814.819,0.00125123
815.125,0.000881589
815.43,0.0015873
815.735,0.00172774
816.04,0.00134476
816.345,0.00112894
816.65,0.00124947
816.956,0.00138166
817.261,0.00183525
817.566,0.00195107
817.871,0.00166959
818.176,0.00138893
818.481,0.0013782
818.787,0.00127944
819.092,0.00108147
819.397,0.00146628
819.702,0.0018949
820.007,0.00181997
820.313,0.00167559
820.618,0.00192057
820.923,0.00232307
821.228,0.00188951
821.533,0.00176358
821.838,0.00212783
822.144,0.00220383
822.449,0.00201127
822.754,0.00146028
823.059,0.00157396
823.364,0.00230893
823.669,0.00215484
823.975,0.00181046
824.28,0.00222629
824.585,0.00259415
824.89,0.0020934
825.195,0.00116212
825.5,0.00141944
825.806,0.0018146
826.111,0.00127171
826.416,0.000955546
826.721,0.00139356
827.026,0.00168202
827.332,0.00176417
827.637,0.00155457
827.942,0.00112676
828.247,0.0010892
828.552,0.00143792
828.857,0.00145627
829.163,0.0012387
829.468,0.00125627
829.773,0.00147132
830.078,0.00214445
830.383,0.00191348
830.688,0.00117447
830.994,0.00123982
831.299,0.0013998
831.604,0.00130393
831.909,0.00182473
832.214,0.00171584
832.52,0.00163333
832.825,0.00132108
833.13,0.0015874
833.435,0.00237697
833.74,0.0020652
834.045,0.00202165
834.351,0.00191731
834.656,0.0017519
834.961,0.00225086
835.266,0.00209546
835.571,0.0017649
835.876,0.00161739
836.182,0.00201784
836.487,0.00276481
836.792,0.00231971
837.097,0.00191169
837.402,0.00282399
837.708,0.00283732
838.013,0.00188613
838.318,0.00149705
838.623,0.00148825
838.928,0.00191765
839.233,0.00208447
839.539,0.00176647
839.844,0.00154187
840.149,0.00130741
840.454,0.00127321
840.759,0.00185033
841.064,0.00218646
841.37,0.00155332
841.675,0.000743234
841.98,0.00113793
842.285,0.00143644
842.59,0.00197754
842.896,0.00241139
843.201,0.00221393
843.506,0.00126949
843.811,0.0012321
844.116,0.00173975
844.421,0.00178672
844.727,0.0016319
845.032,0.00172066
845.337,0.00172558
845.642,0.00131793
845.947,0.00179952
846.252,0.00161883
846.558,0.00165978
846.863,0.00196823
847.168,0.00138336
847.473,0.00162302
847.778,0.00205464
848.083,0.00185594
848.389,0.0014569
848.694,0.00157874
848.999,0.00208624
849.304,0.002177
849.609,0.00199175
849.915,0.00165486
850.22,0.00132126
850.525,0.00140278
850.83,0.00168432
851.135,0.0015371
851.44,0.00136297
851.746,0.00135803
852.051,0.00189517
852.356,0.00205148
852.661,0.00129002
852.966,0.00139781
853.271,0.00190038
853.577,0.00150742
853.882,0.00131299
854.187,0.00172241
854.492,0.00186125
854.797,0.00163036
855.103,0.00139559
855.408,0.0014084
855.713,0.00156221
856.018,0.00131801
856.323,0.00159796
856.628,0.00197446
856.934,0.00188138
857.239,0.00162705
857.544,0.00165665
857.849,0.00181632
858.154,0.00161071
858.459,0.00155779
858.765,0.00153381
859.07,0.001656
859.375,0.00180285
859.68,0.00159367
859.985,0.00121032
860.291,0.000831666
860.596,0.00107212
860.901,0.00129362
861.206,0.00100418
861.511,0.00108199
861.816,0.00155658
862.122,0.00150128
862.427,0.001553
862.732,0.00151345
863.037,0.0011623
863.342,0.00128135
863.647,0.00185608
863.953,0.00175167
864.258,0.00142342
864.563,0.00156303
864.868,0.00190556
865.173,0.0020622
865.479,0.00184922
865.784,0.00130307
866.089,0.0013274
866.394,0.00226117
866.699,0.00249427
867.004,0.0015414
867.31,0.00151648
867.615,0.00195814
867.92,0.00148467
868.225,0.00184154
868.53,0.00201567
868.835,0.00173548
869.141,0.00186412
869.446,0.00215207
869.751,0.00172171
870.056,0.00172301
870.361,0.00158877
870.667,0.00164018
870.972,0.00215766
871.277,0.00237581
871.582,0.0019665
871.887,0.00163359
872.192,0.00177949
872.498,0.00167904
872.803,0.00132219
873.108,0.00142127
873.413,0.00121453
873.718,0.00122043
874.023,0.00211154
874.329,0.00242415
874.634,0.00225971
874.939,0.00196701
875.244,0.00132199
875.549,0.00190294
875.854,0.00284763
876.16,0.00284364
876.465,0.00205918
876.77,0.00151901
877.075,0.00126419
877.38,0.00120773
877.686,0.00161689
877.991,0.00185707
878.296,0.00216202
878.601,0.00208282
878.906,0.00162645
879.211,0.00142801
879.517,0.00121683
879.822,0.00154347
880.127,0.00144989
880.432,0.00165413
880.737,0.00230895
881.042,0.00184114
881.348,0.00159006
881.653,0.0019031
881.958,0.00175848
882.263,0.00147591
882.568,0.00162986
882.874,0.00254415
883.179,0.00229647
883.484,0.00149424
883.789,0.00142557
884.094,0.00150718
884.399,0.00107941
884.705,0.0014808
885.01,0.00140122
885.315,0.00107303
885.62,0.00131629
885.925,0.0011762
886.23,0.00132457
886.536,0.00187263
886.841,0.00202625
887.146,0.00222004
887.451,0.00198619
887.756,0.00147338
888.062,0.00140659
888.367,0.00212763
888.672,0.00227343
888.977,0.00160714
889.282,0.00155062
889.587,0.00206577
889.893,0.00228619
890.198,0.00191149
890.503,0.00157414
890.808,0.00177986
891.113,0.00199764
891.418,0.00240989
891.724,0.0025274
892.029,0.00213327
892.334,0.00192574
892.639,0.00176289
892.944,0.00141858
893.25,0.00177115
893.555,0.00167975
893.86,0.00173031
894.165,0.00208846
894.47,0.00156838
894.775,0.00108614
895.081,0.00128386
895.386,0.00141684
895.691,0.00160734
895.996,0.00220023
896.301,0.00228583
896.606,0.00190561
896.912,0.00152821
897.217,0.00125861
897.522,0.00159399
897.827,0.00205269
898.132,0.00153189
898.438,0.00220866
898.743,0.00244436
899.048,0.00196325
899.353,0.00126895
899.658,0.00170404
899.963,0.00201057
900.269,0.00189281
900.574,0.00133623
900.879,0.00129363
901.184,0.00162411
901.489,0.00174303
901.794,0.00139331
902.1,0.00160791
902.405,0.00164971
902.71,0.00137226
903.015,0.0014171
903.32,0.00156516
903.625,0.0013547
903.931,0.00150919
904.236,0.0022851
904.541,0.00253506
904.846,0.00227899
905.151,0.00192239
905.457,0.00148116
905.762,0.00147747
906.067,0.00130667
906.372,0.0015827
906.677,0.00161376
906.982,0.00180565
907.288,0.00154276
907.593,0.00146772
907.898,0.00179338
908.203,0.00211525
908.508,0.00251366
908.813,0.00283301
909.119,0.0021756
909.424,0.00153663
909.729,0.00194983
910.034,0.00186228
910.339,0.00147603
910.645,0.00155553
910.95,0.0015059
911.255,0.00172512
911.56,0.0018339
911.865,0.00187676
912.17,0.00202321
912.476,0.00180907
912.781,0.00187384
913.086,0.00198956
913.391,0.00156469
913.696,0.00189718
914.001,0.00227116
914.307,0.00199456
914.612,0.00135095
914.917,0.00144554
915.222,0.00160958
915.527,0.00138887
915.833,0.00106636
916.138,0.00145684
916.443,0.0020564
916.748,0.00197574
917.053,0.00140918
917.358,0.00145394
917.664,0.00198207
917.969,0.0023145
918.274,0.0026127
918.579,0.00195485
918.884,0.00149658
919.189,0.00206977
919.495,0.00197174
919.8,0.00161827
920.105,0.00141972
920.41,0.00190083
920.715,0.00207835
921.021,0.00189645
921.326,0.00150258
921.631,0.00178756
921.936,0.00131771
922.241,0.000929697
922.546,0.0020118
922.852,0.00259134
923.157,0.00202032
923.462,0.00143141
923.767,0.00130305
924.072,0.00145985
924.377,0.0021199
924.683,0.00194815
924.988,0.000782478
925.293,0.00140782
925.598,0.00184439
925.903,0.00162087
926.208,0.00148585
926.514,0.001797
926.819,0.00181306
927.124,0.00156602
927.429,0.00152403
927.734,0.0014954
928.04,0.00174082
928.345,0.00179226
928.65,0.00140668
928.955,0.00157558
929.26,0.00165961
929.565,0.00178263
929.871,0.00315157
930.176,0.00315653
930.481,0.0022926
930.786,0.0022178
931.091,0.00194767
931.396,0.00163423
931.702,0.00161613
932.007,0.00242087
932.312,0.00241629
932.617,0.00112662
932.922,0.00260558
933.228,0.0032672
933.533,0.00210277
933.838,0.00169828
934.143,0.0015997
934.448,0.00182813
934.753,0.00157099
935.059,0.0016573
935.364,0.00252653
935.669,0.00178165
935.974,0.000828891
936.279,0.0016036
936.584,0.00106138
936.89,0.00156485
937.195,0.0018397
937.5,0.00165482
937.805,0.00156067
938.11,0.00171626
938.416,0.00152458
938.721,0.00165013
939.026,0.00188834
939.331,0.00184066
939.636,0.00154327
939.941,0.00141317
940.247,0.00114437
940.552,0.00132312
940.857,0.00203211
941.162,0.00221854
941.467,0.00205024
941.772,0.00220447
942.078,0.00179552
942.383,0.00157764
942.688,0.00142533
942.993,0.00168811
943.298,0.00169391
943.604,0.00156116
943.909,0.00169475
944.214,0.00164607
944.519,0.00125654
944.824,0.00172367
945.129,0.00157935
945.435,0.00129568
945.74,0.00168615
946.045,0.00192798
946.35,0.00169592
946.655,0.00187518
946.96,0.00217047
947.266,0.00198877
947.571,0.00185891
947.876,0.00161281
948.181,0.00204268
948.486,0.00222357
948.792,0.00160299
949.097,0.0012931
949.402,0.00151491
949.707,0.00130641
950.012,0.00107878
950.317,0.00137047
950.623,0.00219631
950.928,0.0023733
951.233,0.00190312
951.538,0.0015494
951.843,0.00189909
952.148,0.00189879
952.454,0.00156602
952.759,0.00145653
953.064,0.00183598
953.369,0.00196983
953.674,0.00233681
953.979,0.00209079
954.285,0.00179431
954.59,0.00153409
954.895,0.00113569
955.2,0.00108504
955.505,0.00135397
955.811,0.000983194
956.116,0.00133792
956.421,0.00178812
956.726,0.0018966
957.031,0.00163651
957.336,0.00126667
957.642,0.000711952
957.947,0.00105752
958.252,0.0013156
958.557,0.00131552
958.862,0.00149481
959.167,0.00171571
959.473,0.00147893
959.778,0.0013118
960.083,0.00176808
960.388,0.00167461
960.693,0.00123146
960.999,0.00120232
961.304,0.00113233
961.609,0.00127276
961.914,0.0018225
962.219,0.00171114
962.524,0.00107542
962.83,0.00133556
963.135,0.00198363
963.44,0.00202974
963.745,0.00193542
964.05,0.00183157
964.355,0.00177084
964.661,0.00183049
964.966,0.00195727
965.271,0.00197122
965.576,0.00176983
965.881,0.00118294
966.187,0.00133286
966.492,0.0013859
966.797,0.00188135
967.102,0.00189623
967.407,0.00135392
967.712,0.00160253
968.018,0.00214927
968.323,0.00173107
968.628,0.001937
968.933,0.00298361
969.238,0.00287826
969.543,0.00213713
969.849,0.00099247
970.154,0.00105058
970.459,0.00130638
970.764,0.00164159
971.069,0.00163994
971.375,0.00148861
971.68,0.00162722
971.985,0.00145458
972.29,0.00165229
972.595,0.00233559
972.9,0.00205179
973.206,0.00207783
973.511,0.00236194
973.816,0.00196121
974.121,0.00176117
974.426,0.00141766
974.731,0.00174234
975.037,0.00177611
975.342,0.00187929
975.647,0.00174182
975.952,0.00158302
976.257,0.00183501
976.563,0.00187143
976.868,0.00164105
977.173,0.00147076
977.478,0.00152712
977.783,0.00188367
978.088,0.0018181
978.394,0.00136266
978.699,0.00194157
979.004,0.00173701
979.309,0.00083972
979.614,0.00163798
979.919,0.00233408
980.225,0.00199088
980.53,0.00110313
980.835,0.00113145
981.14,0.00175054
981.445,0.00146355
981.75,0.00144791
982.056,0.00137553
982.361,0.000931494
982.666,0.00151787
982.971,0.00127815
983.276,0.00141149
983.582,0.00180927
983.887,0.0015387
984.192,0.00154181
984.497,0.00172737
984.802,0.00171842
985.107,0.00141409
985.413,0.00118649
985.718,0.00135363
986.023,0.00169597
986.328,0.00190214
986.633,0.0019096
986.938,0.0016479
987.244,0.00142725
987.549,0.00116802
987.854,0.00120003
988.159,0.00130554
988.464,0.00154324
988.77,0.00160078
989.075,0.00104652
989.38,0.00148752
989.685,0.00171735
989.99,0.0015533
990.295,0.00139561
990.601,0.00141722
990.906,0.00161072
991.211,0.00145443
991.516,0.00105953
991.821,0.000943559
992.126,0.00121632
992.432,0.00114653
992.737,0.000937263
993.042,0.000894834
993.347,0.00146477
993.652,0.00154974
993.958,0.00133658
994.263,0.00151464
994.568,0.00164411
994.873,0.00162274
995.178,0.00135677
995.483,0.00114249
995.789,0.00114895
996.094,0.000985116
996.399,0.00143073
996.704,0.00132212
997.009,0.00122562
997.314,0.00134783
997.62,0.00119423
997.925,0.00101996
998.23,0.00123111
998.535,0.00134265
998.84,0.00109257
999.146,0.0011227
999.451,0.00162531
999.756,0.00195007
1000.06,0.00161573
1000.37,0.000838841
1000.67,0.00196274
1000.98,0.00259026
1001.28,0.00182476
1001.59,0.00104854
1001.89,0.00141412
1002.2,0.00146833
1002.5,0.00122104
1002.81,0.00201228
1003.11,0.00163912
1003.42,0.00142805
1003.72,0.00204423
1004.03,0.00201754
1004.33,0.00183028
1004.64,0.00187455
1004.94,0.00165187
1005.25,0.00183527
1005.55,0.00208133
1005.86,0.00180459
1006.16,0.00123558
1006.47,0.0018323
1006.77,0.00175878
1007.08,0.00191623
1007.39,0.0019923
1007.69,0.00153004
1008,0.00240336
1008.3,0.00160604
1008.61,0.00316612
1008.91,0.00256028
1009.22,0.00499399
1009.52,0.0133194
1009.83,0.0172127
1010.13,0.0131631
1010.44,0.0046215
1010.74,0.00317298
1011.05,0.00394729
1011.35,0.00124091
1011.66,0.00302761
1011.96,0.0024754
1012.27,0.00187965
1012.57,0.00293104
1012.88,0.0020756
1013.18,0.00219741
1013.49,0.00170926
1013.79,0.00200252
1014.1,0.00220035
1014.4,0.00112233
1014.71,0.00228612
1015.01,0.00156149
1015.32,0.00180071
1015.63,0.00238652
1015.93,0.00140835
1016.24,0.00170553
1016.54,0.00121405
1016.85,0.00145586
1017.15,0.00204461
1017.46,0.00140575
1017.76,0.00144608
1018.07,0.00147484
1018.37,0.00118276
1018.68,0.00119417
1018.98,0.000942637
1019.29,0.000955312
1019.59,0.00130189
1019.9,0.00121044
1020.2,0.00167737
1020.51,0.00182328
1020.81,0.00171832
1021.12,0.00143323
1021.42,0.00114283
1021.73,0.00115282
1022.03,0.00133582
1022.34,0.00116584
1022.64,0.00132771
1022.95,0.00188275
1023.25,0.00192225
1023.56,0.00164308
1023.86,0.00126999
1024.17,0.00120067
1024.48,0.00174885
1024.78,0.001549
1025.09,0.00117788
1025.39,0.00162637
1025.7,0.00181771
1026,0.00166003
1026.31,0.00145242
1026.61,0.0010732
1026.92,0.000988482
1027.22,0.00156081
1027.53,0.00151973
1027.83,0.0014623
1028.14,0.0018438
1028.44,0.00190535
1028.75,0.00159568
1029.05,0.00132382
1029.36,0.00153681
1029.66,0.00123192
1029.97,0.00130022
1030.27,0.00115723
1030.58,0.00180587
1030.88,0.0028312
1031.19,0.00267505
1031.49,0.00200604
1031.8,0.00155524
1032.1,0.00188148
1032.41,0.00158297
1032.71,0.00134796
1033.02,0.00125432
1033.33,0.00144971
1033.63,0.00208329
1033.94,0.00164714
1034.24,0.0019315
1034.55,0.00241661
1034.85,0.00177101
1035.16,0.00099317
1035.46,0.00139708
1035.77,0.00138107
1036.07,0.00130989
1036.38,0.0011896
1036.68,0.00117045
1036.99,0.00149353
1037.29,0.00164443
1037.6,0.00179071
1037.9,0.00156261
1038.21,0.00139242
1038.51,0.00124093
1038.82,0.00120824
1039.12,0.00181841
1039.43,0.00192944
1039.73,0.00147215
1040.04,0.00105391
1040.34,0.000857235
1040.65,0.000848351
1040.95,0.00185855
1041.26,0.00213251
1041.56,0.00121356
1041.87,0.00142587
1042.18,0.00194891
1042.48,0.00197063
1042.79,0.00187574
1043.09,0.00171983
1043.4,0.00121978
1043.7,0.00114275
1044.01,0.0018535
1044.31,0.00232701
1044.62,0.002052
1044.92,0.00163774
1045.23,0.00117298
1045.53,0.00121463
1045.84,0.00145004
1046.14,0.00145823
1046.45,0.00205932
1046.75,0.00231464
1047.06,0.00201099
1047.36,0.0022436
1047.67,0.00194548
1047.97,0.00127853
1048.28,0.0017005
1048.58,0.00154358
1048.89,0.00135745
1049.19,0.00183782
1049.5,0.00145918
1049.8,0.00104722
1050.11,0.0016244
1050.42,0.00190687
1050.72,0.00162293
1051.03,0.00133161
1051.33,0.000983471
1051.64,0.00135314
1051.94,0.00215338
1052.25,0.00217418
1052.55,0.00199559
1052.86,0.00293491
1053.16,0.00336334
1053.47,0.00255662
1053.77,0.00184742
1054.08,0.00218377
1054.38,0.00214979
1054.69,0.00159158
1054.99,0.00157247
1055.3,0.00158764
1055.6,0.00201813
1055.91,0.0022989
1056.21,0.00182677
1056.52,0.00126858
1056.82,0.00136416
1057.13,0.00200073
1057.43,0.00189071
1057.74,0.00196348
1058.04,0.00213625
1058.35,0.00221463
1058.65,0.00215143
1058.96,0.00152409
1059.27,0.00160754
1059.57,0.00109134
1059.88,0.00100932
1060.18,0.00156669
1060.49,0.00203044
1060.79,0.00161133
1061.1,0.00133814
1061.4,0.00131619
1061.71,0.00172218
1062.01,0.00207762
1062.32,0.00223879
1062.62,0.00224106
1062.93,0.00198453
1063.23,0.00152566
1063.54,0.00140578
1063.84,0.00164298
1064.15,0.00124532
1064.45,0.00169863
1064.76,0.00197471
1065.06,0.00161583
1065.37,0.00163801
1065.67,0.00181672
1065.98,0.00191828
1066.28,0.00216554
1066.59,0.00229947
1066.89,0.00210558
1067.2,0.00142977
1067.5,0.00136208
1067.81,0.00106977
1068.12,0.000844599
1068.42,0.00140113
1068.73,0.00203202
1069.03,0.00196067
1069.34,0.00143166
1069.64,0.00165868
1069.95,0.00225714
1070.25,0.00245172
1070.56,0.00209604
1070.86,0.00173846
1071.17,0.00166784
1071.47,0.00173512
1071.78,0.00150195
1072.08,0.00159568
1072.39,0.000978869
1072.69,0.00141508
1073,0.00194426
1073.3,0.00117476
1073.61,0.00121886
1073.91,0.00201349
1074.22,0.00209156
1074.52,0.00178576
1074.83,0.00222113
1075.13,0.00194192
1075.44,0.00132383
1075.74,0.00124883
1076.05,0.00163655
1076.35,0.00168064
1076.66,0.00157592
1076.97,0.00128213
1077.27,0.00158177
1077.58,0.00169555
1077.88,0.00193833
1078.19,0.00189937
1078.49,0.00152165
1078.8,0.00189436
1079.1,0.00222841
1079.41,0.00209078
1079.71,0.00164423
1080.02,0.00139863
1080.32,0.00179446
1080.63,0.0020919
1080.93,0.00226803
1081.24,0.00213759
1081.54,0.00189863
1081.85,0.0019734
1082.15,0.00196164
1082.46,0.00154088
1082.76,0.00160248
1083.07,0.00156069
1083.37,0.0016226
1083.68,0.00127069
1083.98,0.00107873
1084.29,0.00176333
1084.59,0.00168045
1084.9,0.000892306
1085.21,0.000914998
1085.51,0.00101265
1085.82,0.00119164
1086.12,0.00176371
1086.43,0.00241323
1086.73,0.00234248
1087.04,0.00210791
1087.34,0.00155398
1087.65,0.00150302
1087.95,0.00189041
1088.26,0.00235276
1088.56,0.00268744
1088.87,0.00288575
1089.17,0.00220126
1089.48,0.00178725
1089.78,0.00181584
1090.09,0.00171171
1090.39,0.00222808
1090.7,0.00267168
1091,0.00204285
1091.31,0.00173917
1091.61,0.00158222
1091.92,0.00171169
1092.22,0.0021794
1092.53,0.0019558
1092.83,0.00160536
1093.14,0.00152471
1093.44,0.00161313
1093.75,0.00154991
1094.06,0.00141553
1094.36,0.00187676
1094.67,0.00220529
1094.97,0.00206384
1095.28,0.00192585
1095.58,0.00159497
1095.89,0.0024082
1096.19,0.00225184
1096.5,0.00148779
1096.8,0.00178312
1097.11,0.00173713
1097.41,0.00159105
1097.72,0.00184102
1098.02,0.00204911
1098.33,0.00210627
1098.63,0.00178953
1098.94,0.00149173
1099.24,0.00132341
1099.55,0.00171753
1099.85,0.00175676
1100.16,0.00164449
1100.46,0.00211706
1100.77,0.00255855
1101.07,0.00212511
1101.38,0.00172135
1101.68,0.00164549
1101.99,0.00143399
1102.29,0.0017876
1102.6,0.00211049
1102.91,0.00213564
1103.21,0.00197785
1103.52,0.00199293
1103.82,0.00199355
1104.13,0.00168481
1104.43,0.0012427
1104.74,0.00183984
1105.04,0.00155688
1105.35,0.00153785
1105.65,0.00167813
1105.96,0.00181682
1106.26,0.0015569
1106.57,0.00160662
1106.87,0.00165697
1107.18,0.00175508
1107.48,0.00218841
1107.79,0.0022508
1108.09,0.00194806
1108.4,0.00160734
1108.7,0.00133755
1109.01,0.000987219
1109.31,0.00145624
1109.62,0.00163762
1109.92,0.00174963
1110.23,0.00234022
1110.53,0.00233286
1110.84,0.001858
1111.15,0.00161832
1111.45,0.00132876
1111.76,0.00081729
1112.06,0.00157307
1112.37,0.00204002
1112.67,0.00148184
1112.98,0.00160044
1113.28,0.00204703
1113.59,0.0016982
1113.89,0.00150266
1114.2,0.00216857
1114.5,0.00220316
1114.81,0.00161306
1115.11,0.00157663
1115.42,0.00216612
1115.72,0.00177092
1116.03,0.00143957
1116.33,0.00180308
1116.64,0.00129191
1116.94,0.00150025
1117.25,0.00224612
1117.55,0.0017471
1117.86,0.00134942
1118.16,0.0015152
1118.47,0.00146585
1118.77,0.00170627
1119.08,0.00174339
1119.38,0.00167973
1119.69,0.00154483
1120,0.00177393
1120.3,0.00170013
1120.61,0.00150444
1120.91,0.00141128
1121.22,0.00107072
1121.52,0.00122403
1121.83,0.00215559
1122.13,0.0018459
1122.44,0.0014626
1122.74,0.00124506
1123.05,0.00105922
1123.35,0.00109054
1123.66,0.00164966
1123.96,0.00199753
1124.27,0.00220703
1124.57,0.00237144
1124.88,0.00246853
1125.18,0.00219744
1125.49,0.00154593
1125.79,0.000902513
1126.1,0.00128832
1126.4,0.00148096
1126.71,0.00149721
1127.01,0.00186541
1127.32,0.00260904
1127.62,0.00288113
1127.93,0.00196099
1128.23,0.002045
1128.54,0.00304054
1128.85,0.00287244
1129.15,0.00216592
1129.46,0.00142577
1129.76,0.0020421
1130.07,0.00210033
1130.37,0.0023085
1130.68,0.00273293
1130.98,0.00260682
1131.29,0.00206916
1131.59,0.00190992
1131.9,0.00234487
1132.2,0.0021972
1132.51,0.00173837
1132.81,0.00201865
1133.12,0.00206085
1133.42,0.00156987
1133.73,0.00136999
1134.03,0.00193175
1134.34,0.00176242
1134.64,0.00158039
1134.95,0.00193493
1135.25,0.00198971
1135.56,0.00169035
1135.86,0.00169431
1136.17,0.00169349
1136.47,0.00184549
1136.78,0.00151887
1137.08,0.00134426
1137.39,0.00131613
1137.7,0.00193641
1138,0.00207155
1138.31,0.00172644
1138.61,0.00109596
1138.92,0.00157696
1139.22,0.0016098
1139.53,0.00136474
1139.83,0.00110262
1140.14,0.000866054
1140.44,0.00158989
1140.75,0.00207802
1141.05,0.00246368
1141.36,0.00261139
1141.66,0.00211988
1141.97,0.0021686
1142.27,0.00215958
1142.58,0.00191073
1142.88,0.00205823
1143.19,0.00148183
1143.49,0.00196591
1143.8,0.00230193
1144.1,0.00179501
1144.41,0.00194293
1144.71,0.00233465
1145.02,0.00175632
1145.32,0.00185668
1145.63,0.00183116
1145.94,0.00143601
1146.24,0.00146296
1146.55,0.00145245
1146.85,0.00135958
1147.16,0.00124601
1147.46,0.00166625
1147.77,0.00149979
1148.07,0.00142773
1148.38,0.00163251
1148.68,0.0017435
1148.99,0.00150716
1149.29,0.00140553
1149.6,0.00121669
1149.9,0.00155083
1150.21,0.00160984
1150.51,0.00165796
1150.82,0.00193787
1151.12,0.00236495
1151.43,0.00207374
1151.73,0.00136931
1152.04,0.00171123
1152.34,0.00228805
1152.65,0.00190555
1152.95,0.00107891
1153.26,0.00110547
1153.56,0.0014993
1153.87,0.00210034
1154.17,0.00270629
1154.48,0.0024837
1154.79,0.00200544
1155.09,0.00210679
1155.4,0.002678
1155.7,0.00274086
1156.01,0.00247759
1156.31,0.00197745
1156.62,0.00168792
1156.92,0.00181025
1157.23,0.00186126
1157.53,0.00144609
1157.84,0.000970962
1158.14,0.00141654
1158.45,0.00234445
1158.75,0.00251698
1159.06,0.00234583
1159.36,0.00186058
1159.67,0.00138045
1159.97,0.0013345
1160.28,0.00168442
1160.58,0.00170825
1160.89,0.00169039
1161.19,0.00171907
1161.5,0.00150795
1161.8,0.00134524
1162.11,0.00127084
1162.41,0.00084705
1162.72,0.0015775
1163.02,0.00194176
1163.33,0.00162981
1163.64,0.00123616
1163.94,0.00154185
1164.25,0.00193183
1164.55,0.00154621
1164.86,0.00107875
1165.16,0.00136116
1165.47,0.00161386
1165.77,0.00144041
1166.08,0.00146772
1166.38,0.00163973
1166.69,0.00166481
1166.99,0.00189262
1167.3,0.00144794
1167.6,0.000818913
1167.91,0.00132802
1168.21,0.00144594
1168.52,0.00174375
1168.82,0.002018
1169.13,0.00152349
1169.43,0.000811877
1169.74,0.00123372
1170.04,0.00111329
1170.35,0.00135808
1170.65,0.00180073
1170.96,0.00115002
1171.26,0.00200648
1171.57,0.00276891
1171.88,0.00236241
1172.18,0.0019337
1172.49,0.00165218
1172.79,0.00167666
1173.1,0.00168703
1173.4,0.00166581
1173.71,0.00158004
1174.01,0.00145317
1174.32,0.00180981
1174.62,0.00228012
1174.93,0.00172582
1175.23,0.00138685
1175.54,0.00117963
1175.84,0.000776671
1176.15,0.00136353
1176.45,0.00202721
1176.76,0.00222135
1177.06,0.00197668
1177.37,0.00122504
1177.67,0.000900259
1177.98,0.00126857
1178.28,0.0016094
1178.59,0.00134023
1178.89,0.00102442
1179.2,0.00182033
1179.5,0.00211632
1179.81,0.00181403
1180.11,0.00124437
1180.42,0.0011073
1180.73,0.00131125
1181.03,0.00121706
1181.34,0.00177058
1181.64,0.0026038
1181.95,0.00252678
1182.25,0.00180167
1182.56,0.00199752
1182.86,0.00208619
1183.17,0.00199539
1183.47,0.00200589
1183.78,0.00187771
1184.08,0.00191993
1184.39,0.00191993
1184.69,0.00186989
1185,0.00174018
1185.3,0.001465
1185.61,0.00146565
1185.91,0.001566
1186.22,0.00127919
1186.52,0.000763209
1186.83,0.0017309
1187.13,0.00218719
1187.44,0.00181289
1187.74,0.00138812
1188.05,0.00125244
1188.35,0.00122497
1188.66,0.00134613
1188.96,0.00178793
1189.27,0.00202037
1189.58,0.0016016
1189.88,0.00119826
1190.19,0.00155535
1190.49,0.00159397
1190.8,0.00190438
1191.1,0.0016373
1191.41,0.0016576
1191.71,0.00183067
1192.02,0.00133139
1192.32,0.0015957
1192.63,0.00216247
1192.93,0.00220767
1193.24,0.00259739
1193.54,0.00181919
1193.85,0.00111979
1194.15,0.00150419
1194.46,0.00137027
1194.76,0.00237084
1195.07,0.00271465
1195.37,0.00215319
1195.68,0.00229716
1195.98,0.00188827
1196.29,0.00102873
1196.59,0.000687747
1196.9,0.00150771
1197.2,0.00236764
1197.51,0.00192641
1197.81,0.00158244
1198.12,0.00193423
1198.43,0.00175211
1198.73,0.00122228
1199.04,0.00158873
1199.34,0.00234391
1199.65,0.00218081
1199.95,0.00129428
1200.26,0.00143967
1200.56,0.00176201
1200.87,0.00165076
1201.17,0.00161022
1201.48,0.00164013
1201.78,0.00119904
1202.09,0.00122082
1202.39,0.00139864
1202.7,0.00129798
1203,0.00166542
1203.31,0.0014876
1203.61,0.00115883
1203.92,0.00181063
1204.22,0.0016018
1204.53,0.00153999
1204.83,0.00150104
1205.14,0.00118375
1205.44,0.00156753
1205.75,0.00134844
1206.05,0.00125259
1206.36,0.00145065
1206.67,0.00155811
1206.97,0.00204766
1207.28,0.00201416
1207.58,0.00191242
1207.89,0.00196176
1208.19,0.00163483
1208.5,0.00105993
1208.8,0.00149663
1209.11,0.00147244
1209.41,0.0015313
1209.72,0.00211011
1210.02,0.00145794
1210.33,0.00107485
1210.63,0.00178941
1210.94,0.0013354
1211.24,0.00129401
1211.55,0.00199691
1211.85,0.00191484
1212.16,0.00194028
1212.46,0.00213455
1212.77,0.00212868
1213.07,0.00172191
1213.38,0.00162708
1213.68,0.00142588
1213.99,0.00136325
1214.29,0.00161414
1214.6,0.00108794
1214.9,0.00147206
1215.21,0.00251748
1215.52,0.00212011
1215.82,0.00152625
1216.13,0.00158478
1216.43,0.00173292
1216.74,0.00217184
1217.04,0.00221076
1217.35,0.00211844
1217.65,0.00198415
1217.96,0.0016281
1218.26,0.00126002
1218.57,0.00158898
1218.87,0.00169991
1219.18,0.00132254
1219.48,0.00118016
1219.79,0.00139303
1220.09,0.00136158
1220.4,0.00163243
1220.7,0.00161076
1221.01,0.00113933
1221.31,0.00140459
1221.62,0.00176631
1221.92,0.00216316
1222.23,0.0023092
1222.53,0.00197693
1222.84,0.00153735
1223.14,0.0013233
1223.45,0.0010434
1223.75,0.00178703
1224.06,0.00165587
1224.37,0.00150789
1224.67,0.00185801
1224.98,0.00156969
1225.28,0.00129453
1225.59,0.00136514
1225.89,0.0014198
1226.2,0.001242
1226.5,0.00113682
1226.81,0.00147128
1227.11,0.00171308
1227.42,0.00163315
1227.72,0.00202064
1228.03,0.00205775
1228.33,0.00122086
1228.64,0.00153658
1228.94,0.00210739
1229.25,0.00190853
1229.55,0.00178584
1229.86,0.00171825
1230.16,0.00146608
1230.47,0.00198455
1230.77,0.00209115
1231.08,0.00194062
1231.38,0.0022099
1231.69,0.00226621
1231.99,0.00189158
1232.3,0.00141445
1232.6,0.001937
1232.91,0.00163063
1233.22,0.00178857
1233.52,0.0020912
1233.83,0.00122347
1234.13,0.00156524
1234.44,0.00216484
1234.74,0.00112317
1235.05,0.00180442
1235.35,0.00204173
1235.66,0.00167623
1235.96,0.00181754
1236.27,0.00158587
1236.57,0.00208762
1236.88,0.00250669
1237.18,0.00185836
1237.49,0.00159115
1237.79,0.00154241
1238.1,0.000709045
1238.4,0.00131
1238.71,0.00215324
1239.01,0.00180861
1239.32,0.00164646
1239.62,0.00153508
1239.93,0.00173577
1240.23,0.00219122
1240.54,0.002048
1240.84,0.00178954
1241.15,0.00150288
1241.46,0.00115384
1241.76,0.00127689
1242.07,0.00118018
1242.37,0.000740786
1242.68,0.00129903
1242.98,0.00179839
1243.29,0.00160325
1243.59,0.0014411
1243.9,0.00113403
1244.2,0.00108104
1244.51,0.00103941
1244.81,0.000871225
1245.12,0.00116073
1245.42,0.0013271
1245.73,0.00142368
1246.03,0.00184479
1246.34,0.00134461
1246.64,0.00116443
1246.95,0.00125025
1247.25,0.00107884
1247.56,0.00143613
1247.86,0.00162966
1248.17,0.00122854
1248.47,0.00142185
1248.78,0.00153069
1249.08,0.00193323
1249.39,0.00176752
1249.69,0.00128251
1250,0.00124415
